19/03/2024	3:42 PM
Amplitude: 2.00 V
Freq  (Hz) 	 Gain (dB)  	 Phase (deg)
 19.930             -0.479             -1.868
 31.665             -0.484             -2.883
 50.291             -0.503             -4.636
 79.535             -0.545             -7.289
126.101             -0.647            -11.323
200.048             -0.896            -17.645
317.022             -1.467            -26.825
502.355             -2.638            -38.668
796.281             -4.664            -51.562
1261.942             -7.523            -62.997
1999.922            -10.993            -72.430
3169.850            -14.731            -78.486
5023.740            -18.619            -82.633
7962.063            -22.569            -84.942
12619.235            -26.574            -86.472
19999.966            -30.571            -86.837
