19/03/2024	3:17 PM
Amplitude: 2.00 V
Freq  (Hz) 	 Gain (dB)  	 Phase (deg)
 19.930             -0.479             -1.872
 31.665             -0.484             -2.952
 50.291             -0.499             -4.549
 79.535             -0.541             -7.275
126.101             -0.643            -11.335
200.048             -0.899            -17.729
317.022             -1.467            -26.704
502.355             -2.641            -38.548
796.281             -4.665            -51.608
1261.942             -7.530            -63.544
1999.922            -10.998            -72.293
3169.850            -14.735            -78.452
5023.740            -18.614            -82.683
7962.063            -22.585            -85.009
12619.235            -26.574            -86.334
19999.966            -30.584            -87.084
31697.936            -34.544            -86.051
50237.775            -38.848            -85.935
79621.375            -42.891            -78.622
126191.415            -45.921            -77.818
200000.033            -49.680            -80.621
