19/03/2024	4:05 PM
Amplitude: 2.00 V
Freq  (Hz) 	 Gain (dB)  	 Phase (deg)
 19.930            -30.144             88.119
 25.146            -28.106             87.909
 31.665            -26.110             87.429
 39.861            -24.121             86.241
 50.291            -22.090             85.213
 63.330            -20.102             84.380
 79.535            -18.160             82.557
100.210            -16.188             80.958
126.101            -14.259             78.483
158.884            -12.362             75.641
200.048            -10.518             72.111
251.830             -8.752             67.881
317.022             -7.076             63.085
398.979             -5.564             57.417
502.355             -4.241             51.074
632.368             -3.135             44.519
796.281             -2.260             38.134
1002.289             -1.605             31.912
1261.942             -1.128             26.429
1588.650             -0.801             21.416
1999.922             -0.591             17.212
2517.924             -0.439             13.913
3169.850             -0.344             11.067
3990.531             -0.287              8.917
5023.740             -0.244              6.976
6324.612             -0.213              5.637
7962.063             -0.207              4.443
10023.825             -0.198              3.528
12619.235             -0.185              2.860
15886.500             -0.203              2.285
19999.966             -0.191              1.698
