19/03/2024	4:43 PM
Amplitude: 2.00 V
Freq  (Hz) 	 Gain (dB)  	 Phase (deg)
 56.066            -22.033             18.336
 65.379            -21.854             21.138
 76.182            -21.626             24.321
 88.662            -21.326             27.510
103.563            -20.952             31.005
120.699            -20.493             34.823
140.630            -19.949             38.317
163.913            -19.292             42.096
191.294            -18.541             45.715
222.959            -17.702             49.049
259.839            -16.786             51.894
303.052            -15.788             54.440
353.344            -14.736             56.390
412.017            -13.641             57.867
480.376            -12.518             58.770
559.911            -11.380             58.940
652.857            -10.245             58.682
761.263             -9.113             57.834
887.550             -8.023             56.326
1034.886             -6.927             54.438
1206.435             -5.939             51.757
1406.670             -5.026             48.806
1640.059             -4.167             45.520
1912.192             -3.427             41.887
2229.400             -2.774             38.252
2599.321             -2.225             34.524
3030.524             -1.771             30.890
3533.438             -1.401             27.094
4119.612             -1.116             24.057
4803.017             -0.891             20.957
