19/03/2024	4:31 PM
Amplitude: 2.00 V
Freq  (Hz) 	 Gain (dB)  	 Phase (deg)
 19.930            -22.508              6.844
 25.146            -22.472              8.609
 31.665            -22.391             10.818
 39.861            -22.291             13.436
 50.291            -22.139             16.767
 63.330            -21.895             20.642
 79.535            -21.548             25.260
100.210            -21.042             30.341
126.101            -20.354             35.861
158.884            -19.439             41.355
200.048            -18.308             46.586
251.830            -16.981             51.381
317.022            -15.487             55.009
398.979            -13.875             57.588
502.355            -12.184             58.948
632.368            -10.475             58.825
796.281             -8.794             57.398
1002.289             -7.142             54.710
1261.942             -5.658             50.926
1588.650             -4.330             46.224
1999.922             -3.215             40.838
2517.924             -2.338             35.326
3169.850             -1.666             29.694
3990.531             -1.170             24.619
5023.740             -0.841             20.127
6324.612             -0.600             16.369
7962.063             -0.470             13.056
10023.825             -0.365             10.379
12619.235             -0.299              8.489
15886.500             -0.251              6.778
19999.966             -0.211              5.254
