19/03/2024	4:54 PM
Amplitude: 2.00 V
Freq  (Hz) 	 Gain (dB)  	 Phase (deg)
 19.930             -1.791             -6.092
 25.146             -1.829             -7.653
 31.665             -1.879             -9.695
 39.861             -1.965            -12.081
 50.291             -2.114            -15.208
 63.330             -2.310            -18.667
 79.535             -2.609            -22.950
100.210             -3.048            -27.929
126.101             -3.672            -33.100
158.884             -4.494            -38.578
200.048             -5.538            -43.771
251.830             -6.797            -48.730
317.022             -8.251            -52.561
398.979             -9.805            -55.309
502.355            -11.441            -56.727
632.368            -13.102            -56.754
796.281            -14.749            -55.339
1002.289            -16.301            -52.747
1261.942            -17.723            -48.971
1588.650            -18.970            -44.369
1999.922            -20.000            -39.215
2517.924            -20.806            -33.937
3169.850            -21.414            -28.990
3990.531            -21.858            -24.558
5023.740            -22.149            -20.804
6324.612            -22.362            -17.819
7962.063            -22.498            -15.522
10023.825            -22.598            -14.137
12619.235            -22.668            -13.273
15886.500            -22.753            -13.228
19999.966            -22.831            -13.711
25178.492            -22.933            -14.896
31697.936            -23.090            -16.916
39905.310            -23.321            -19.346
50237.775            -23.638            -22.190
63245.557            -24.122            -25.926
79621.375            -24.765            -29.841
100237.504            -25.551            -33.491
126191.415            -26.496            -36.608
158865.564            -27.627            -39.090
200000.033            -28.919            -40.345
