22/03/2024	3:20 PM
Amplitude: 2.00 V
Freq  (Hz) 	 Gain (dB)  	 Phase (deg)
1000.054             -9.255            -102.687
1258.962             -7.540            -108.875
1584.925             -5.925            -115.411
1995.265             -4.500            -122.542
2511.963             -3.318            -129.870
3162.213             -2.359            -137.018
3981.031             -1.622            -143.977
5011.819             -1.094            -149.686
6309.524             -0.676            -155.928
7943.250             -0.416            -160.341
9999.983             -0.236            -164.134
12589.246             -0.148            -167.753
15848.875             -0.057            -170.308
19952.655             -0.029            -172.551
25118.887              0.023            -174.531
31622.685              0.059            -176.124
39810.687              0.087            -177.639
50118.752              0.071            -178.965
63095.801              0.023            179.318
79432.875             -0.043            178.344
100000.016             -0.013            177.730
125892.460              0.071            176.792
158489.309              0.172            174.949
199526.176              0.300            172.855
251188.688              0.449            170.173
316227.786              0.678            166.632
398107.246              1.034            161.938
501187.146              1.556            155.045
630957.261              2.302            144.028
794328.190              3.168            124.414
999999.978              2.761             91.835
