22/03/2024	4:26 PM
Amplitude: 2.00 V
Freq  (Hz) 	 Gain (dB)  	 Phase (deg)
 10.058              1.716            -147.033
 12.666            -55.469            -168.884
 15.832            -21.382            132.867
 19.930              3.076            -176.143
 25.146            -55.511             -5.032
 31.665            -51.488             -1.957
 39.861            -47.009             -4.132
 50.105            -43.095             -7.604
 63.144            -38.951             -7.587
 79.349            -34.988             -9.769
100.024            -31.020            -14.365
125.915            -26.940            -18.032
158.511            -22.985            -22.726
199.489            -19.066            -28.758
251.271            -15.170            -36.847
316.277            -11.407            -47.068
398.047             -7.921            -60.129
501.238             -4.885            -76.454
630.878             -2.695            -94.562
794.418             -1.339            -111.852
1000.054             -0.626            -126.894
1258.962             -0.283            -138.645
1584.925             -0.130            -147.732
1995.265             -0.060            -154.715
2511.963             -0.020            -160.214
3162.213             -0.011            -164.333
3981.031             -0.010            -167.800
5011.819              0.005            -170.336
6309.524              0.007            -172.182
7943.250             -0.014            -174.306
9999.983              0.014            -175.588
12589.246              0.025            -176.713
15848.875              0.014            -177.290
19952.655              0.032            -178.211
