22/03/2024	4:19 PM
Amplitude: 2.00 V
Freq  (Hz) 	 Gain (dB)  	 Phase (deg)
 10.058             14.959            -92.775
 12.666             20.508            170.014
 15.832            -65.359            -23.243
 19.930              9.568            -53.454
 25.146            -54.638            -13.934
 31.665            -51.135             -8.035
 39.861            -46.818             -1.162
 50.105            -43.244              0.286
 63.144            -38.718             -1.509
 79.349            -34.717             -3.814
100.024            -30.714             -3.420
125.915            -26.571             -4.425
158.511            -22.325             -5.254
199.489            -17.974             -6.924
251.271            -13.346             -9.432
316.277             -8.314            -13.157
398.047             -2.357            -20.850
501.238              5.172            -42.497
630.878              9.978            -110.809
794.418              6.057            -151.635
1000.054              3.453            -163.693
1258.962              2.056            -169.028
1584.925              1.250            -172.232
1995.265              0.778            -174.278
2511.963              0.484            -175.796
3162.213              0.314            -176.559
3981.031              0.209            -177.532
5011.819              0.119            -178.150
6309.524              0.101            -178.344
7943.250              0.061            -179.130
9999.983              0.056            -179.114
12589.246              0.026            -179.739
15848.875              0.026            -179.780
19952.655              0.026            179.789
