22/03/2024	3:50 PM
Amplitude: 2.00 V
Freq  (Hz) 	 Gain (dB)  	 Phase (deg)
 10.058            -35.455             88.450
 12.666            -33.456             88.010
 15.832            -31.529             87.726
 19.930            -29.538             87.218
 25.146            -27.532             86.401
 31.665            -25.479             85.555
 39.861            -23.488             84.439
 50.105            -21.518             82.922
 63.144            -19.509             81.125
 79.349            -17.525             78.725
100.024            -15.525             75.766
125.915            -13.539             72.059
158.511            -11.562             67.257
199.489             -9.624             61.184
251.271             -7.712             53.309
316.277             -5.920             42.908
398.047             -4.416             29.484
501.238             -3.448             13.274
630.878             -3.248             -4.710
794.418             -3.879            -22.009
1000.054             -5.153            -36.774
1258.962             -6.850            -48.520
1584.925             -8.734            -57.590
1995.265            -10.656            -64.503
2511.963            -12.612            -69.948
3162.213            -14.592            -74.034
3981.031            -16.579            -77.293
5011.819            -18.576            -80.093
6309.524            -20.572            -82.410
7943.250            -22.555            -84.054
9999.983            -24.534            -85.133
12589.246            -26.578            -86.309
15848.875            -28.564            -86.747
19952.655            -30.579            -87.934
