22/03/2024	3:54 PM
Amplitude: 2.00 V
Freq  (Hz) 	 Gain (dB)  	 Phase (deg)
 10.058            -35.487             85.465
 12.666            -33.502             84.212
 15.832            -31.637             82.763
 19.930            -29.646             80.811
 25.146            -27.700             78.564
 31.665            -25.737             75.669
 39.861            -23.869             72.226
 50.105            -22.119             67.868
 63.144            -20.419             62.821
 79.349            -18.888             57.058
100.024            -17.521             50.369
125.915            -16.392             43.279
158.511            -15.476             35.993
199.489            -14.780             28.802
251.271            -14.294             22.097
316.277            -13.959             15.754
398.047            -13.755              9.632
501.238            -13.656              4.099
630.878            -13.634             -1.408
794.418            -13.696             -7.023
1000.054            -13.855            -12.771
1258.962            -14.114            -18.928
1584.925            -14.529            -25.400
1995.265            -15.126            -32.492
2511.963            -15.922            -39.713
3162.213            -16.948            -46.847
3981.031            -18.198            -53.723
5011.819            -19.639            -59.964
6309.524            -21.252            -65.520
7943.250            -22.976            -70.115
9999.983            -24.791            -73.987
12589.246            -26.717            -77.457
15848.875            -28.612            -79.295
19952.655            -30.586            -82.398
