22/03/2024	3:56 PM
Amplitude: 2.00 V
Freq  (Hz) 	 Gain (dB)  	 Phase (deg)
 10.058            -35.462             89.657
 12.666            -33.457             89.492
 15.832            -31.550             89.374
 19.930            -29.526             89.233
 25.146            -27.518             89.118
 31.665            -25.456             89.119
 39.861            -23.458             88.927
 50.105            -21.462             88.370
 63.144            -19.410             88.099
 79.349            -17.366             87.475
100.024            -15.273             86.767
125.915            -13.130             85.914
158.511            -10.902             84.698
199.489             -8.534             83.036
251.271             -5.885             80.626
316.277             -2.827             76.671
398.047              1.088             68.879
501.238              6.619             47.034
630.878              9.378            -20.959
794.418              3.439            -61.788
1000.054             -1.143            -73.644
1258.962             -4.522            -79.074
1584.925             -7.356            -81.909
1995.265             -9.830            -84.007
2511.963            -12.101            -85.435
3162.213            -14.283            -86.411
3981.031            -16.386            -87.176
5011.819            -18.444            -87.824
6309.524            -20.489            -88.223
7943.250            -22.506            -88.533
9999.983            -24.504            -89.316
12589.246            -26.538            -89.052
15848.875            -28.562            -90.064
19952.655            -30.535            -89.774
