22/03/2024	3:31 PM
Amplitude: 2.00 V
Freq  (Hz) 	 Gain (dB)  	 Phase (deg)
 10.058              0.007            178.519
 12.666              0.011            178.194
 15.832              0.013            177.830
 19.930              0.017            177.223
 25.146              0.012            176.462
 31.665              0.015            175.667
 39.861              0.014            174.376
 50.105              0.010            172.916
 63.144              0.006            170.912
 79.349              0.005            168.906
100.024             -0.007            165.899
125.915             -0.015            162.184
158.511             -0.030            157.446
199.489             -0.082            151.319
251.271             -0.189            143.213
316.277             -0.418            132.813
398.047             -0.933            119.388
501.238             -1.958            103.047
630.878             -3.728             85.138
794.418             -6.375             67.554
1000.054             -9.709             52.782
1258.962            -13.367             41.123
1584.925            -17.201             32.215
1995.265            -21.112             25.234
2511.963            -25.057             19.899
3162.213            -29.052             15.968
3981.031            -33.025             12.787
5011.819            -37.125            -17.452
6309.524            -41.050              8.035
7943.250            -44.966              6.632
9999.983            -48.924              4.956
