22/03/2024	3:38 PM
Amplitude: 2.00 V
Freq  (Hz) 	 Gain (dB)  	 Phase (deg)
 10.058              0.008            178.530
 12.666              0.008            178.288
 15.832              0.010            177.827
 19.930              0.007            177.120
 25.146              0.008            176.454
 31.665              0.010            175.545
 39.861              0.008            174.380
 50.105              0.006            173.098
 63.144              0.005            171.291
 79.349              0.001            168.805
100.024             -0.007            165.824
125.915             -0.013            162.219
158.511             -0.042            157.399
199.489             -0.083            151.261
251.271             -0.191            143.149
316.277             -0.424            132.841
398.047             -0.943            119.541
501.238             -1.958            102.960
630.878             -3.723             84.982
794.418             -6.372             67.625
1000.054             -9.705             52.830
1258.962            -13.359             41.338
1584.925            -17.196             32.114
1995.265            -21.109             25.211
2511.963            -25.057             19.872
3162.213            -29.032             15.730
3981.031            -33.036             12.147
5011.819            -37.064             18.298
6309.524            -41.044              7.990
7943.250            -44.955              6.631
9999.983            -48.906              5.134
12589.246            -52.920              4.604
15848.875            -57.000              5.263
19952.655            -60.852              8.555
