22/03/2024	3:37 PM
Amplitude: 2.00 V
Freq  (Hz) 	 Gain (dB)  	 Phase (deg)
 10.058              0.016            179.703
 12.666              0.014            179.566
 15.832              0.019            179.469
 19.930              0.019            179.417
 25.146              0.028            179.245
 31.665              0.036            179.002
 39.861              0.049            178.678
 50.105              0.071            178.570
 63.144              0.103            178.101
 79.349              0.159            177.493
100.024              0.251            176.857
125.915              0.393            175.958
158.511              0.615            174.902
199.489              0.990            173.182
251.271              1.620            170.880
316.277              2.692            166.775
398.047              4.611            158.982
501.238              8.174            137.015
630.878              8.905             68.767
794.418              0.963             27.995
1000.054             -5.575             16.209
1258.962            -11.051             10.868
1584.925            -15.840              7.855
1995.265            -20.290              5.989
2511.963            -24.535              4.594
3162.213            -28.725              3.637
3981.031            -32.855              2.879
5011.819            -36.942              2.485
6309.524            -40.967              1.960
7943.250            -44.921              1.385
9999.983            -48.913              1.276
