22/03/2024	3:27 PM
Amplitude: 2.00 V
Freq  (Hz) 	 Gain (dB)  	 Phase (deg)
 10.058             -0.016            175.317
 12.666             -0.026            174.224
 15.832             -0.052            172.775
 19.930             -0.085            170.896
 25.146             -0.145            168.604
 31.665             -0.235            165.553
 39.861             -0.376            162.268
 50.105             -0.595            158.024
 63.144             -0.902            152.928
 79.349             -1.355            146.936
100.024             -1.989            140.413
125.915             -2.835            133.362
158.511             -3.907            126.060
199.489             -5.205            118.922
251.271             -6.742            112.041
316.277             -8.410            105.629
398.047            -10.216             99.609
501.238            -12.100             94.010
630.878            -14.082             88.457
794.418            -16.153             82.773
1000.054            -18.298             77.008
1258.962            -20.560             70.609
1584.925            -22.968             64.269
1995.265            -25.572             57.234
2511.963            -28.337             49.756
3162.213            -31.385             42.752
3981.031            -34.616             36.356
5011.819            -38.133             29.807
6309.524            -41.692             24.584
7943.250            -45.496             19.526
9999.983            -49.288             15.417
