22/03/2024	3:27 PM
Amplitude: 2.00 V
Freq  (Hz) 	 Gain (dB)  	 Phase (deg)
 10.058             -0.020            175.269
 12.666             -0.032            174.153
 15.832             -0.050            172.724
 19.930             -0.088            170.908
 25.146             -0.148            168.580
 31.665             -0.235            165.711
 39.861             -0.373            162.182
 50.105             -0.582            158.007
 63.144             -0.907            152.906
 79.349             -1.357            146.999
100.024             -2.000            140.378
125.915             -2.833            133.378
158.511             -3.911            126.104
199.489             -5.213            118.793
251.271             -6.748            111.733
316.277             -8.415            105.590
398.047            -10.214             99.723
501.238            -12.109             93.971
630.878            -14.081             88.424
794.418            -16.153             82.860
1000.054            -18.303             76.990
1258.962            -20.564             70.885
1584.925            -22.975             64.180
1995.265            -25.571             57.195
2511.963            -28.348             50.129
3162.213            -31.367             42.515
3981.031            -34.618             36.219
5011.819            -37.989            -29.869
6309.524            -41.721             24.392
7943.250            -45.517             19.847
9999.983            -49.274             15.839
12589.246            -53.145             11.619
15848.875            -57.077              9.354
19952.655            -61.096              5.807
