22/03/2024	3:36 PM
Amplitude: 2.00 V
Freq  (Hz) 	 Gain (dB)  	 Phase (deg)
 10.058              0.014            179.614
 12.666              0.011            179.578
 15.832              0.016            179.436
 19.930              0.021            179.358
 25.146              0.025            179.203
 31.665              0.038            179.084
 39.861              0.052            178.809
 50.105              0.074            178.537
 63.144              0.105            178.137
 79.349              0.160            177.570
100.024              0.248            176.922
125.915              0.395            175.945
158.511              0.617            174.868
199.489              0.995            173.235
251.271              1.623            170.794
316.277              2.688            166.822
398.047              4.611            159.132
501.238              8.176            137.166
630.878              8.899             68.668
794.418              0.963             28.074
1000.054             -5.588             15.938
1258.962            -11.047             10.870
1584.925            -15.840              7.834
1995.265            -20.291              6.010
2511.963            -24.542              4.827
3162.213            -28.725              3.540
3981.031            -32.892              2.979
5011.819            -36.944              2.383
6309.524            -40.973              2.236
7943.250            -44.918              1.435
9999.983            -48.902              1.580
12589.246            -52.877              1.125
15848.875            -56.933             -0.488
19952.655            -60.748              0.948
